LabVIEW Measurement	
Writer_Version	2
Reader_Version	2
Separator	Tab
Decimal_Separator	.
Multi_Headings	Yes
X_Columns	Multi
Time_Pref	Relative
Operator	e014
Description	Hysteresis Loop Data
Date	2015/08/03
Time	16:36:54.337848663330078125
***End_of_Header***	
	
Channels	2			
Samples	100		100	
Date	2015/08/03		2015/08/03	
Time	16:36:54.337848663330078125		16:36:54.337848663330078125	
Y_Unit_Label	V		V	
X_Dimension	Time		Time	
X0	0.0000000000000000E+0		0.0000000000000000E+0	
Delta_X	1.000000E-5		1.000000E-5	
***End_of_Header***				
X_Value	Applied Voltage	X_Value	Sense Voltage	Comment
0.000000	2.787752	0.000000	0.614755
1.000000E-5	2.942614	1.000000E-5	0.633825
2.000000E-5	3.102079	2.000000E-5	0.652237
3.000000E-5	3.259900	3.000000E-5	0.670979
4.000000E-5	3.409829	4.000000E-5	0.688734
5.000000E-5	3.558773	5.000000E-5	0.704187
6.000000E-5	3.714950	6.000000E-5	0.717339
7.000000E-5	3.879346	7.000000E-5	0.728189
8.000000E-5	3.883292	8.000000E-5	0.711749
9.000000E-5	3.721197	9.000000E-5	0.694652
1.000000E-4	3.570609	1.000000E-4	0.677555
0.000110	3.424954	0.000110	0.660128
0.000120	3.272065	0.000120	0.642374
0.000130	3.108326	0.000130	0.623961
0.000140	2.941628	0.000140	0.604891
0.000150	2.774929	0.000150	0.584835
0.000160	2.610533	0.000160	0.563134
0.000170	2.450410	0.000170	0.540119
0.000180	2.291603	0.000180	0.515459
0.000190	2.131480	0.000190	0.490471
0.000200	1.971687	0.000200	0.463839
0.000210	1.812222	0.000210	0.435562
0.000220	1.651442	0.000220	0.405642
0.000230	1.492963	0.000230	0.374078
0.000240	1.333827	0.000240	0.341527
0.000250	1.177979	0.000250	0.307004
0.000260	1.024761	0.000260	0.271823
0.000270	0.873844	0.000270	0.235327
0.000280	0.726874	0.000280	0.197187
0.000290	0.582862	0.000290	0.159047
0.000300	0.442138	0.000300	0.119920
0.000310	0.304045	0.000310	0.080465
0.000320	0.166280	0.000320	0.040023
0.000330	0.029173	0.000330	-0.000747
0.000340	-0.108592	0.000340	-0.041189
0.000350	-0.246357	0.000350	-0.082617
0.000360	-0.384450	0.000360	-0.124045
0.000370	-0.524845	0.000370	-0.165802
0.000380	-0.671816	0.000380	-0.207559
0.000390	-0.826021	0.000390	-0.249973
0.000400	-0.988774	0.000400	-0.292059
0.000410	-1.161062	0.000410	-0.334145
0.000420	-1.344858	0.000420	-0.375244
0.000430	-1.541477	0.000430	-0.416672
0.000440	-1.750919	0.000440	-0.456456
0.000450	-1.972198	0.000450	-0.495911
0.000460	-2.199395	0.000460	-0.529120
0.000470	-2.374643	0.000470	-0.552793
0.000480	-2.537396	0.000480	-0.576137
0.000490	-2.697848	0.000490	-0.597180
0.000500	-2.859615	0.000500	-0.617565
0.000510	-3.021054	0.000510	-0.636964
0.000520	-3.183478	0.000520	-0.655376
0.000530	-3.346561	0.000530	-0.672803
0.000540	-3.511945	0.000540	-0.690229
0.000550	-3.676671	0.000550	-0.706997
0.000560	-3.830876	0.000560	-0.722779
0.000570	-3.983766	0.000570	-0.734287
0.000580	-3.905842	0.000580	-0.718176
0.000590	-3.756897	0.000590	-0.702065
0.000600	-3.628338	0.000600	-0.682666
0.000610	-3.486628	0.000610	-0.664912
0.000620	-3.338998	0.000620	-0.646499
0.000630	-3.181834	0.000630	-0.628087
0.000640	-3.014478	0.000640	-0.609345
0.000650	-2.844491	0.000650	-0.590275
0.000660	-2.666941	0.000660	-0.570876
0.000670	-2.483145	0.000670	-0.550820
0.000680	-2.308555	0.000680	-0.527147
0.000690	-2.150076	0.000690	-0.505118
0.000700	-2.012969	0.000700	-0.474868
0.000710	-1.879149	0.000710	-0.442647
0.000720	-1.727904	0.000720	-0.412069
0.000730	-1.537203	0.000730	-0.386094
0.000740	-1.354064	0.000740	-0.354201
0.000750	-1.215313	0.000750	-0.313759
0.000760	-1.073274	0.000760	-0.275290
0.000770	-0.877313	0.000770	-0.239452
0.000780	-0.733301	0.000780	-0.192106
0.000790	-0.568246	0.000790	-0.151993
0.000800	-0.410425	0.000800	-0.102345
0.000810	-0.244713	0.000810	-0.054012
0.000820	-0.085247	0.000820	-0.005350
0.000830	0.071259	0.000830	0.042982
0.000840	0.229408	0.000840	0.091973
0.000850	0.394134	0.000850	0.140305
0.000860	0.557216	0.000860	0.184692
0.000870	0.716352	0.000870	0.228422
0.000880	0.875817	0.000880	0.269192
0.000890	1.041858	0.000890	0.307333
0.000900	1.203296	0.000900	0.343171
0.000910	1.364734	0.000910	0.377037
0.000920	1.526829	0.000920	0.408930
0.000930	1.688595	0.000930	0.439179
0.000940	1.851677	0.000940	0.467784
0.000950	2.013772	0.000950	0.495074
0.000960	2.175539	0.000960	0.521049
0.000970	2.332702	0.000970	0.546037
0.000980	2.485591	0.000980	0.569710
0.000990	2.561378	0.000990	0.581382

